       #Distance (in Angstrom), Planar Average-Potential (in eV) or -Densitiy (in e/A)
  0.0000   -0.80227271E-08
  0.0765    0.25672731E-07
  0.1531    0.63827852E-07
  0.2296    0.10666531E-06
  0.3061    0.15419790E-06
  0.3827    0.20673706E-06
  0.4592    0.26532405E-06
  0.5357    0.33196428E-06
  0.6122    0.40912435E-06
  0.6888    0.49950797E-06
  0.7653    0.60586351E-06
  0.8418    0.73108321E-06
  0.9184    0.87816011E-06
  0.9949    0.10508019E-05
  1.0714    0.12541008E-05
  1.1480    0.14951525E-05
  1.2245    0.17829569E-05
  1.3010    0.21284106E-05
  1.3776    0.25441259E-05
  1.4541    0.30444779E-05
  1.5306    0.36456855E-05
  1.6071    0.43669052E-05
  1.6837    0.52318278E-05
  1.7602    0.62705336E-05
  1.8367    0.75206569E-05
  1.9133    0.90283609E-05
  1.9898    0.10848752E-04
  2.0663    0.13046305E-04
  2.1429    0.15695663E-04
  2.2194    0.18884495E-04
  2.2959    0.22718313E-04
  2.3724    0.27326612E-04
  2.4490    0.32868455E-04
  2.5255    0.39537111E-04
  2.6020    0.47563253E-04
  2.6786    0.57217995E-04
  2.7551    0.68817622E-04
  2.8316    0.82733499E-04
  2.9082    0.99408093E-04
  2.9847    0.11937579E-03
  3.0612    0.14328419E-03
  3.1378    0.17191307E-03
  3.2143    0.20618967E-03
  3.2908    0.24720380E-03
  3.3673    0.29622906E-03
  3.4439    0.35475868E-03
  3.5204    0.42455981E-03
  3.5969    0.50774315E-03
  3.6735    0.60683742E-03
  3.7500    0.72485880E-03
  3.8265    0.86537110E-03
  3.9031    0.10325452E-02
  3.9796    0.12312358E-02
  4.0561    0.14670961E-02
  4.1327    0.17467393E-02
  4.2092    0.20779335E-02
  4.2857    0.24697933E-02
  4.3622    0.29329290E-02
  4.4388    0.34795283E-02
  4.5153    0.41233779E-02
  4.5918    0.48798655E-02
  4.6684    0.57660033E-02
  4.7449    0.68004797E-02
  4.8214    0.80036753E-02
  4.8980    0.93975142E-02
  4.9745    0.11005010E-01
  5.0510    0.12849429E-01
  5.1276    0.14953128E-01
  5.2041    0.17336239E-01
  5.2806    0.20015419E-01
  5.3571    0.23002738E-01
  5.4337    0.26304528E-01
  5.5102    0.29919736E-01
  5.5867    0.33837316E-01
  5.6633    0.38032501E-01
  5.7398    0.42462521E-01
  5.8163    0.47063168E-01
  5.8929    0.51748172E-01
  5.9694    0.56413257E-01
  6.0459    0.60946850E-01
  6.1224    0.65243682E-01
  6.1990    0.69215490E-01
  6.2755    0.72798023E-01
  6.3520    0.75953323E-01
  6.4286    0.78667683E-01
  6.5051    0.80947070E-01
  6.5816    0.82812157E-01
  6.6582    0.84294501E-01
  6.7347    0.85434369E-01
  6.8112    0.86279742E-01
  6.8878    0.86885439E-01
  6.9643    0.87311281E-01
  7.0408    0.87618790E-01
  7.1173    0.87866764E-01
  7.1939    0.88106665E-01
  7.2704    0.88378794E-01
  7.3469    0.88709685E-01
  7.4235    0.89110686E-01
  7.5000    0.89577635E-01
  7.5765    0.90092025E-01
  7.6531    0.90624448E-01
  7.7296    0.91140868E-01
  7.8061    0.91611144E-01
  7.8827    0.92017688E-01
  7.9592    0.92361055E-01
  8.0357    0.92659583E-01
  8.1122    0.92941953E-01
  8.1888    0.93233178E-01
  8.2653    0.93539692E-01
  8.3418    0.93841187E-01
  8.4184    0.94091449E-01
  8.4949    0.94228377E-01
  8.5714    0.94190595E-01
  8.6480    0.93934325E-01
  8.7245    0.93444269E-01
  8.8010    0.92736054E-01
  8.8776    0.91850765E-01
  8.9541    0.90844709E-01
  9.0306    0.89778505E-01
  9.1071    0.88708674E-01
  9.1837    0.87683179E-01
  9.2602    0.86740790E-01
  9.3367    0.85913169E-01
  9.4133    0.85228113E-01
  9.4898    0.84712444E-01
  9.5663    0.84393405E-01
  9.6429    0.84298036E-01
  9.7194    0.84450611E-01
  9.7959    0.84868614E-01
  9.8724    0.85558027E-01
  9.9490    0.86508921E-01
 10.0255    0.87692592E-01
 10.1020    0.89061551E-01
 10.1786    0.90553425E-01
 10.2551    0.92098957E-01
 10.3316    0.93632813E-01
 10.4082    0.95104212E-01
 10.4847    0.96483417E-01
 10.5612    0.97760898E-01
 10.6378    0.98938424E-01
 10.7143    0.10001407E+00
 10.7908    0.10096801E+00
 10.8673    0.10175665E+00
 10.9439    0.10231716E+00
 11.0204    0.10258066E+00
 11.0969    0.10248902E+00
 11.1735    0.10200927E+00
 11.2500    0.10114075E+00
 11.3265    0.99913363E-01
 11.4031    0.98379315E-01
 11.4796    0.96602223E-01
 11.5561    0.94647632E-01
 11.6327    0.92577235E-01
 11.7092    0.90447377E-01
 11.7857    0.88310886E-01
 11.8622    0.86220517E-01
 11.9388    0.84232335E-01
 12.0153    0.82408239E-01
 12.0918    0.80817895E-01
 12.1684    0.79540835E-01
 12.2449    0.78669067E-01
 12.3214    0.78309676E-01
 12.3980    0.78586461E-01
 12.4745    0.79640146E-01
 12.5510    0.81627854E-01
 12.6276    0.84723652E-01
 12.7041    0.89121987E-01
 12.7806    0.95044133E-01
 12.8571    0.10274457E+00
 12.9337    0.11251057E+00
 13.0102    0.12461495E+00
 13.0867    0.13915625E+00
 13.1633    0.15598446E+00
 13.2398    0.17471137E+00
 13.3163    0.19468077E+00
 13.3929    0.21498338E+00
 13.4694    0.23464079E+00
 13.5459    0.25283384E+00
 13.6224    0.26910083E+00
 13.6990    0.28338566E+00
 13.7755    0.29588596E+00
 13.8520    0.30691500E+00
 13.9286    0.31674488E+00
 14.0051    0.32544554E+00
 14.0816    0.33278570E+00
 14.1582    0.33824507E+00
 14.2347    0.34114471E+00
 14.3112    0.34085201E+00
 14.3878    0.33698258E+00
 14.4643    0.32952005E+00
 14.5408    0.31881456E+00
 14.6173    0.30547042E+00
 14.6939    0.29017999E+00
 14.7704    0.27357327E+00
 14.8469    0.25613491E+00
 14.9235    0.23820157E+00
 15.0000    0.22001672E+00
 15.0765    0.20186908E+00
 15.1531    0.18424865E+00
 15.2296    0.16792135E+00
 15.3061    0.15387965E+00
 15.3827    0.14333142E+00
 15.4592    0.13746529E+00
 15.5357    0.13715759E+00
 15.6122    0.14280704E+00
 15.6888    0.15428986E+00
 15.7653    0.17105242E+00
 15.8418    0.19218006E+00
 15.9184    0.21634631E+00
 15.9949    0.24180340E+00
 16.0714    0.26651181E+00
 16.1480    0.28844435E+00
 16.2245    0.30600850E+00
 16.3010    0.31845199E+00
 16.3776    0.32609572E+00
 16.4541    0.33027749E+00
 16.5306    0.33292127E+00
 16.6071    0.33595634E+00
 16.6837    0.34075663E+00
 16.7602    0.34776838E+00
 16.8367    0.35642272E+00
 16.9133    0.36541669E+00
 16.9898    0.37318281E+00
 17.0663    0.37835970E+00
 17.1429    0.38014478E+00
 17.2194    0.37846976E+00
 17.2959    0.37399292E+00
 17.3724    0.36793264E+00
 17.4490    0.36173563E+00
 17.5255    0.35654153E+00
 17.6020    0.35273653E+00
 17.6786    0.34969458E+00
 17.7551    0.34594280E+00
 17.8316    0.33960051E+00
 17.9082    0.32891885E+00
 17.9847    0.31276024E+00
 18.0612    0.29089113E+00
 18.1378    0.26403013E+00
 18.2143    0.23367024E+00
 18.2908    0.20174657E+00
 18.3673    0.17024293E+00
 18.4439    0.14082390E+00
 18.5204    0.11460207E+00
 18.5969    0.92126036E-01
 18.6735    0.73421518E-01
 18.7500    0.58156980E-01
 18.8265    0.45843114E-01
 18.9031    0.35998787E-01
 18.9796    0.28188490E-01
 19.0561    0.22031283E-01
 19.1327    0.17201374E-01
 19.2092    0.13425440E-01
 19.2857    0.10478709E-01
 19.3622    0.81801722E-02
 19.4388    0.63868348E-02
 19.5153    0.49872743E-02
 19.5918    0.38951385E-02
 19.6684    0.30433075E-02
 19.7449    0.23792147E-02
 19.8214    0.18614416E-02
 19.8980    0.14573683E-02
 19.9745    0.11415070E-02
 20.0510    0.89417354E-03
 20.1276    0.70030015E-03
 20.2041    0.54835087E-03
 20.2806    0.42939424E-03
 20.3571    0.33639286E-03
 20.4337    0.26372533E-03
 20.5102    0.20689637E-03
 20.5867    0.16235869E-03
 20.6633    0.12737107E-03
 20.7398    0.99851957E-04
 20.8163    0.78223850E-04
 20.8929    0.61268833E-04
 20.9694    0.48015934E-04
 21.0459    0.37671459E-04
 21.1224    0.29585856E-04
 21.1990    0.23241284E-04
 21.2755    0.18241048E-04
 21.3520    0.14291783E-04
 21.4286    0.11177818E-04
 21.5051    0.87349333E-05
 21.5816    0.68293898E-05
 21.6582    0.53468702E-05
 21.7347    0.41898254E-05
 21.8112    0.32796774E-05
 21.8878    0.25578404E-05
 21.9643    0.19837021E-05
 22.0408    0.15293597E-05
 22.1173    0.11740791E-05
 22.1939    0.89967633E-06
 22.2704    0.68883862E-06
 22.3469    0.52559268E-06
 22.4235    0.39725899E-06
 22.5000    0.29523834E-06
 22.5765    0.21462584E-06
 22.6531    0.15248807E-06
 22.7296    0.10649240E-06
 22.8061    0.73717558E-07
 22.8827    0.50714723E-07
 22.9592    0.34069013E-07
 23.0357    0.21557926E-07
 23.1122    0.12317850E-07
 23.1888    0.65268426E-08
 23.2653    0.43963730E-08
 23.3418    0.57226384E-08
 23.4184    0.94872438E-08
 23.4949    0.14287577E-07
 23.5714    0.18825438E-07
 23.6480    0.22709051E-07
 23.7245    0.26348218E-07
 23.8010    0.30617406E-07
 23.8776    0.36060068E-07
 23.9541    0.42677069E-07
 24.0306    0.49700997E-07
 24.1071    0.56071914E-07
 24.1837    0.60888280E-07
 24.2602    0.64104070E-07
 24.3367    0.66351021E-07
 24.4133    0.68583937E-07
 24.4898    0.71354172E-07
 24.5663    0.74682154E-07
 24.6429    0.77893409E-07
 24.7194    0.80064936E-07
 24.7959    0.80409494E-07
 24.8724    0.78921488E-07
 24.9490    0.76231726E-07
 25.0255    0.73300905E-07
 25.1020    0.70719208E-07
 25.1786    0.68558718E-07
 25.2551    0.66206963E-07
 25.3316    0.62807357E-07
 25.4082    0.57628245E-07
 25.4847    0.50670430E-07
 25.5612    0.42532231E-07
 25.6378    0.34149808E-07
 25.7143    0.26146593E-07
 25.7908    0.18670298E-07
 25.8673    0.11189397E-07
 25.9439    0.29014435E-08
 26.0204   -0.68979540E-08
 26.0969   -0.18216777E-07
 26.1735   -0.30492727E-07
 26.2500   -0.42823087E-07
 26.3265   -0.54563607E-07
 26.4031   -0.65491119E-07
 26.4796   -0.76049994E-07
 26.5561   -0.86995609E-07
 26.6327   -0.99024538E-07
 26.7092   -0.11216249E-06
 26.7857   -0.12587737E-06
 26.8622   -0.13930109E-06
 26.9388   -0.15179004E-06
 27.0153   -0.16307084E-06
 27.0918   -0.17351142E-06
 27.1684   -0.18381970E-06
 27.2449   -0.19468844E-06
 27.3214   -0.20617656E-06
 27.3980   -0.21780644E-06
 27.4745   -0.22876529E-06
 27.5510   -0.23841182E-06
 27.6276   -0.24641026E-06
 27.7041   -0.25306299E-06
 27.7806   -0.25908437E-06
 27.8571   -0.26521729E-06
 27.9337   -0.27155073E-06
 28.0102   -0.27762568E-06
 28.0867   -0.28269689E-06
 28.1633   -0.28619288E-06
 28.2398   -0.28774768E-06
 28.3163   -0.28755634E-06
 28.3929   -0.28631307E-06
 28.4694   -0.28487029E-06
 28.5459   -0.28341062E-06
 28.6224   -0.28145815E-06
 28.6990   -0.27826576E-06
 28.7755   -0.27336724E-06
 28.8520   -0.26647001E-06
 28.9286   -0.25765929E-06
 29.0051   -0.24748720E-06
 29.0816   -0.23687165E-06
 29.1582   -0.22620319E-06
 29.2347   -0.21505993E-06
 29.3112   -0.20254939E-06
 29.3878   -0.18810688E-06
 29.4643   -0.17148743E-06
 29.5408   -0.15273615E-06
 29.6173   -0.13214028E-06
 29.6939   -0.11034965E-06
 29.7704   -0.87716082E-07
 29.8469   -0.63844083E-07
 29.9235   -0.37623514E-07
